 #Layer No. | Resistivity | Thickness | Anisotropy
         1         10.00        1.00         1.00
         2         10.00        1.28         1.00
         3         10.00        1.36         1.00
         4         10.00        1.46         1.00
         5         10.00        1.58         1.00
         6         10.00        1.74         1.00
         7         10.00        1.95         1.00
         8         10.00        2.22         1.00
         9         10.00        2.56         1.00
        10         10.00        2.99         1.00
        11         10.00        3.54         1.00
        12         10.00        4.25         1.00
        13         10.00        5.15         1.00
        14         10.00        6.31         1.00
        15         10.00        7.79         1.00
        16         10.00        9.68         1.00
        17         10.00       12.10         1.00
        18         10.00       15.19         1.00
        19         10.00       19.15         1.00
        20         10.00       24.20         1.00
        21         10.00       30.66         1.00
        22         10.00       38.92         1.00
        23         10.00       49.48         1.00
        24         10.00       62.98         1.00
        25         10.00       80.25         1.00
        26         10.00      102.32         1.00
        27         10.00      130.54         1.00
        28         10.00      166.61         1.00
        29         10.00      212.74         1.00
        30         10.00        0.00         1.00
# Calibration factor:  1.0000
# Tx-Distortion Txx:   1.0000
# Tx-Distortion Txy:   0.0000
# Error:                0.000
